# wn[cm-1] real imag
4503.04 1.28210 3.0000e-04
4495.33 1.28177 3.0000e-04
4487.61 1.28146 3.0000e-04
4479.91 1.28113 3.0000e-04
4472.19 1.28080 3.0000e-04
4464.47 1.28046 3.0000e-04
4456.77 1.28012 3.1000e-04
4449.05 1.27977 3.3000e-04
4441.33 1.27943 3.5000e-04
4433.63 1.27909 3.7000e-04
4425.90 1.27874 3.9000e-04
4418.19 1.27840 4.1000e-04
4410.47 1.27806 4.3000e-04
4402.77 1.27771 4.4000e-04
4395.04 1.27736 4.5000e-04
4387.33 1.27700 4.6000e-04
4379.63 1.27664 4.6000e-04
4371.91 1.27626 4.6000e-04
4364.18 1.27587 4.6000e-04
4356.48 1.27547 4.6000e-04
4348.77 1.27506 4.7000e-04
4341.05 1.27465 4.8000e-04
4333.34 1.27423 5.0000e-04
4325.61 1.27380 5.2000e-04
4317.90 1.27337 5.5000e-04
4310.20 1.27294 5.8000e-04
4302.48 1.27251 6.2000e-04
4294.76 1.27207 6.5000e-04
4287.04 1.27163 6.9000e-04
4279.34 1.27119 7.3000e-04
4271.62 1.27075 7.6000e-04
4263.90 1.27031 7.9000e-04
4256.19 1.26985 8.1000e-04
4248.49 1.26939 8.3000e-04
4240.77 1.26892 8.5000e-04
4233.06 1.26844 8.6000e-04
4225.35 1.26795 8.8000e-04
4217.63 1.26746 8.9000e-04
4209.91 1.26694 9.0000e-04
4202.19 1.26642 9.1000e-04
4194.49 1.26589 9.2000e-04
4186.76 1.26534 9.3000e-04
4179.05 1.26479 9.4000e-04
4171.34 1.26422 9.5000e-04
4163.63 1.26364 9.7000e-04
4155.91 1.26304 9.8000e-04
4148.21 1.26244 1.0000e-03
4140.48 1.26181 1.0200e-03
4132.78 1.26119 1.0400e-03
4125.06 1.26054 1.0700e-03
4117.34 1.25989 1.1000e-03
4109.63 1.25921 1.1300e-03
4101.91 1.25853 1.1700e-03
4094.20 1.25784 1.2100e-03
4086.49 1.25715 1.2600e-03
4078.77 1.25645 1.3000e-03
4071.06 1.25574 1.3400e-03
4063.34 1.25501 1.3700e-03
4055.63 1.25426 1.4000e-03
4047.91 1.25351 1.4200e-03
4040.21 1.25273 1.4400e-03
4032.49 1.25192 1.4600e-03
4024.78 1.25111 1.4800e-03
4017.06 1.25028 1.5000e-03
4009.35 1.24942 1.5100e-03
4001.63 1.24855 1.5200e-03
3993.91 1.24765 1.5200e-03
3986.21 1.24674 1.5100e-03
3978.48 1.24579 1.4900e-03
3970.78 1.24481 1.4600e-03
3963.06 1.24379 1.4300e-03
3955.35 1.24274 1.3900e-03
3947.64 1.24165 1.3500e-03
3939.92 1.24052 1.3000e-03
3932.21 1.23934 1.2500e-03
3924.49 1.23812 1.1900e-03
3916.78 1.23683 1.1300e-03
3909.06 1.23550 1.0800e-03
3901.36 1.23409 1.0300e-03
3893.64 1.23263 1.0100e-03
3885.92 1.23111 1.0000e-03
3878.21 1.22953 1.0200e-03
3870.49 1.22790 1.0500e-03
3862.78 1.22619 1.1100e-03
3855.06 1.22443 1.2000e-03
3847.35 1.22260 1.3200e-03
3839.64 1.22073 1.5000e-03
3831.93 1.21881 1.7100e-03
3824.21 1.21687 1.9700e-03
3816.50 1.21493 2.2200e-03
3808.78 1.21294 2.4500e-03
3801.07 1.21091 2.6400e-03
3793.35 1.20878 2.7600e-03
3785.64 1.20652 2.8400e-03
3777.93 1.20410 2.8900e-03
3770.21 1.20149 2.9400e-03
3762.50 1.19866 3.0100e-03
3754.78 1.19563 3.1500e-03
3747.07 1.19240 3.3600e-03
3739.35 1.18892 3.6800e-03
3731.65 1.18526 4.1000e-03
3723.92 1.18130 4.6600e-03
3716.21 1.17711 5.3900e-03
3708.50 1.17260 6.3500e-03
3700.78 1.16784 7.6300e-03
3693.08 1.16285 9.2800e-03
3685.36 1.15767 1.1360e-02
3677.65 1.15242 1.3880e-02
3669.93 1.14712 1.6860e-02
3662.21 1.14188 2.0240e-02
3654.50 1.13677 2.3990e-02
3646.79 1.13170 2.8030e-02
3639.08 1.12675 3.2320e-02
3631.36 1.12172 3.6840e-02
3623.65 1.11674 4.1630e-02
3615.93 1.11156 4.6730e-02
3608.22 1.10639 5.2220e-02
3600.50 1.10100 5.8190e-02
3592.79 1.09576 6.4700e-02
3585.08 1.09035 7.1790e-02
3577.37 1.08531 7.9530e-02
3569.64 1.07993 8.7920e-02
3561.94 1.07539 9.7010e-02
3554.22 1.07061 1.0682e-01
3546.50 1.06647 1.1736e-01
3538.80 1.06299 1.2864e-01
3531.09 1.06019 1.4063e-01
3523.36 1.05737 1.5331e-01
3515.66 1.05648 1.6662e-01
3507.94 1.05562 1.8047e-01
3500.22 1.05641 1.9476e-01
3492.51 1.05813 2.0936e-01
3484.79 1.06078 2.2414e-01
3477.09 1.06541 2.3896e-01
3469.37 1.07018 2.5367e-01
3461.66 1.07698 2.6812e-01
3453.95 1.08463 2.8217e-01
3446.23 1.09334 2.9572e-01
3438.52 1.10298 3.0871e-01
3430.80 1.11351 3.2109e-01
3423.09 1.12485 3.3284e-01
3415.37 1.13702 3.4390e-01
3407.65 1.14997 3.5420e-01
3399.94 1.16335 3.6365e-01
3392.23 1.17857 3.7217e-01
3384.52 1.19324 3.7969e-01
3376.80 1.20866 3.8615e-01
3369.09 1.22477 3.9153e-01
3361.37 1.23989 3.9586e-01
3353.66 1.25639 3.9914e-01
3345.95 1.27299 4.0142e-01
3338.23 1.28866 4.0273e-01
3330.51 1.30465 4.0311e-01
3322.80 1.32049 4.0262e-01
3315.09 1.33667 4.0128e-01
3307.37 1.35142 3.9912e-01
3299.67 1.36800 3.9612e-01
3291.94 1.38195 3.9226e-01
3284.23 1.39757 3.8755e-01
3276.52 1.41163 3.8199e-01
3268.81 1.42602 3.7563e-01
3261.09 1.43909 3.6857e-01
3253.38 1.45237 3.6085e-01
3245.66 1.46444 3.5250e-01
3237.94 1.47641 3.4349e-01
3230.24 1.48809 3.3378e-01
3222.52 1.49874 3.2339e-01
3214.80 1.50813 3.1243e-01
3207.09 1.51721 3.0110e-01
3199.38 1.52483 2.8959e-01
3191.67 1.53230 2.7797e-01
3183.95 1.53876 2.6625e-01
3176.24 1.54455 2.5444e-01
3168.52 1.54951 2.4255e-01
3160.81 1.55438 2.3060e-01
3153.09 1.55858 2.1850e-01
3145.38 1.56211 2.0609e-01
3137.67 1.56552 1.9321e-01
3129.95 1.56722 1.7986e-01
3122.24 1.56817 1.6628e-01
3114.53 1.56752 1.5285e-01
3106.82 1.56568 1.3993e-01
3099.09 1.56235 1.2778e-01
3091.38 1.55854 1.1652e-01
3083.67 1.55398 1.0620e-01
3075.96 1.54903 9.6850e-02
3068.24 1.54354 8.8460e-02
3060.53 1.53831 8.0970e-02
3052.81 1.53293 7.4240e-02
3045.09 1.52777 6.8080e-02
3037.38 1.52270 6.2390e-02
3029.67 1.51770 5.7100e-02
3021.96 1.51275 5.2230e-02
3014.25 1.50776 4.7790e-02
3006.53 1.50294 4.3760e-02
2998.82 1.49817 4.0100e-02
2991.10 1.49362 3.6760e-02
2983.38 1.48913 3.3680e-02
2975.68 1.48489 3.0840e-02
2967.96 1.48064 2.8240e-02
2960.24 1.47657 2.5850e-02
2952.54 1.47265 2.3670e-02
2944.81 1.46879 2.1660e-02
2937.10 1.46509 1.9810e-02
2929.39 1.46151 1.8090e-02
2921.68 1.45801 1.6510e-02
2913.97 1.45461 1.5060e-02
2906.25 1.45129 1.3740e-02
2898.53 1.44806 1.2550e-02
2890.82 1.44494 1.1480e-02
2883.11 1.44196 1.0510e-02
2875.39 1.43904 9.6200e-03
2867.68 1.43624 8.8200e-03
2859.96 1.43353 8.0800e-03
2852.25 1.43089 7.4100e-03
2844.54 1.42836 6.8000e-03
2836.82 1.42588 6.2400e-03
2829.11 1.42349 5.7400e-03
2821.39 1.42115 5.2800e-03
2813.68 1.41888 4.8800e-03
2805.96 1.41668 4.5400e-03
2798.25 1.41456 4.2500e-03
2790.54 1.41252 4.0000e-03
2782.83 1.41056 3.7700e-03
2775.11 1.40865 3.5700e-03
2767.39 1.40681 3.3900e-03
2759.68 1.40502 3.2200e-03
2751.97 1.40330 3.0700e-03
2744.25 1.40161 2.9300e-03
2736.54 1.39996 2.8100e-03
2728.83 1.39837 2.7100e-03
2721.11 1.39681 2.6100e-03
2713.40 1.39529 2.5300e-03
2705.69 1.39382 2.4500e-03
2697.97 1.39236 2.3900e-03
2690.25 1.39094 2.3300e-03
2682.54 1.38954 2.2800e-03
2674.83 1.38816 2.2500e-03
2667.11 1.38681 2.2400e-03
2659.40 1.38549 2.2400e-03
2651.68 1.38419 2.2600e-03
2643.97 1.38293 2.2900e-03
2636.25 1.38168 2.3300e-03
2628.54 1.38047 2.3900e-03
2620.83 1.37927 2.4500e-03
2613.12 1.37809 2.5300e-03
2605.40 1.37693 2.6200e-03
2597.69 1.37579 2.7400e-03
2589.98 1.37468 2.8700e-03
2582.26 1.37359 3.0200e-03
2574.55 1.37254 3.1900e-03
2566.83 1.37152 3.3500e-03
2559.12 1.37052 3.5300e-03
2551.40 1.36955 3.7000e-03
2543.69 1.36859 3.8900e-03
2535.97 1.36767 4.0700e-03
2528.26 1.36674 4.2700e-03
2520.55 1.36586 4.4800e-03
2512.83 1.36498 4.6800e-03
2505.12 1.36413 4.9000e-03
2497.40 1.36329 5.1100e-03
2489.69 1.36248 5.3400e-03
2481.97 1.36168 5.5700e-03
2474.26 1.36091 5.8100e-03
2466.55 1.36017 6.0400e-03
2458.83 1.35944 6.2600e-03
2451.12 1.35873 6.4800e-03
2443.41 1.35803 6.6900e-03
2435.69 1.35732 6.8900e-03
2427.98 1.35662 7.1000e-03
2420.26 1.35592 7.3200e-03
2412.55 1.35523 7.5400e-03
2404.84 1.35455 7.7800e-03
2397.12 1.35387 8.0300e-03
2389.41 1.35322 8.2900e-03
2381.70 1.35260 8.5500e-03
2373.98 1.35198 8.7900e-03
2366.27 1.35137 9.0200e-03
2358.55 1.35072 9.2400e-03
2350.84 1.35007 9.4800e-03
2343.13 1.34938 9.7500e-03
2335.41 1.34869 1.0090e-02
2327.70 1.34803 1.0470e-02
2319.99 1.34741 1.0900e-02
2312.27 1.34684 1.1360e-02
2304.56 1.34632 1.1820e-02
2296.84 1.34585 1.2280e-02
2289.13 1.34540 1.2740e-02
2281.41 1.34497 1.3190e-02
2273.70 1.34457 1.3660e-02
2265.99 1.34419 1.4150e-02
2258.27 1.34386 1.4660e-02
2250.56 1.34357 1.5180e-02
2242.85 1.34335 1.5710e-02
2235.13 1.34318 1.6230e-02
2227.41 1.34307 1.6750e-02
2219.70 1.34304 1.7240e-02
2211.99 1.34307 1.7700e-02
2204.27 1.34315 1.8120e-02
2196.56 1.34332 1.8490e-02
2188.84 1.34351 1.8800e-02
2181.13 1.34382 1.9030e-02
2173.42 1.34411 1.9160e-02
2165.70 1.34447 1.9190e-02
2157.99 1.34484 1.9090e-02
2150.27 1.34516 1.8870e-02
2142.56 1.34546 1.8520e-02
2134.85 1.34567 1.8070e-02
2127.13 1.34578 1.7540e-02
2119.42 1.34580 1.6960e-02
2111.71 1.34571 1.6340e-02
2103.99 1.34553 1.5700e-02
2096.28 1.34526 1.5060e-02
2088.56 1.34491 1.4430e-02
2080.85 1.34448 1.3800e-02
2073.14 1.34398 1.3200e-02
2065.42 1.34344 1.2610e-02
2057.71 1.34280 1.2040e-02
2050.00 1.34213 1.1510e-02
2042.28 1.34139 1.1000e-02
2034.57 1.34060 1.0530e-02
2026.85 1.33976 1.0110e-02
2019.14 1.33889 9.7300e-03
2011.42 1.33800 9.3900e-03
2003.71 1.33707 9.0900e-03
1996.00 1.33614 8.8300e-03
1988.28 1.33517 8.5900e-03
1980.57 1.33418 8.3900e-03
1972.85 1.33317 8.2200e-03
1965.14 1.33215 8.0800e-03
1957.43 1.33109 7.9700e-03
1949.71 1.33003 7.8900e-03
1942.00 1.32894 7.8400e-03
1934.28 1.32783 7.8100e-03
1926.57 1.32670 7.8200e-03
1918.86 1.32555 7.8500e-03
1911.14 1.32437 7.9100e-03
1903.43 1.32317 8.0000e-03
1895.71 1.32193 8.1200e-03
1888.00 1.32068 8.2700e-03
1880.29 1.31940 8.4500e-03
1872.57 1.31809 8.6500e-03
1864.86 1.31674 8.8700e-03
1857.14 1.31535 9.1200e-03
1849.43 1.31388 9.3800e-03
1841.72 1.31235 9.6900e-03
1834.00 1.31075 1.0030e-02
1826.29 1.30903 1.0420e-02
1818.58 1.30722 1.0880e-02
1810.86 1.30528 1.1430e-02
1803.15 1.30322 1.2080e-02
1795.43 1.30099 1.2870e-02
1787.72 1.29860 1.3830e-02
1780.01 1.29603 1.5020e-02
1772.29 1.29327 1.6520e-02
1764.58 1.29035 1.8420e-02
1756.86 1.28736 2.0800e-02
1749.15 1.28436 2.3720e-02
1741.44 1.28149 2.7170e-02
1733.72 1.27867 3.1120e-02
1726.01 1.27578 3.5840e-02
1718.29 1.27315 4.1860e-02
1710.58 1.27166 4.9320e-02
1702.86 1.27204 5.7620e-02
1695.15 1.27454 6.5830e-02
1687.44 1.27872 7.3320e-02
1679.72 1.28433 7.9820e-02
1672.01 1.29105 8.5130e-02
1664.30 1.29871 8.8990e-02
1656.58 1.30692 9.1210e-02
1648.87 1.31530 9.1650e-02
1641.15 1.32333 9.0300e-02
1633.44 1.33060 8.7310e-02
1625.73 1.33661 8.3090e-02
1618.01 1.34126 7.8090e-02
1610.30 1.34467 7.2590e-02
1602.58 1.34654 6.6750e-02
1594.87 1.34674 6.1070e-02
1587.16 1.34542 5.6430e-02
1579.44 1.34351 5.3310e-02
1571.73 1.34191 5.1300e-02
1564.01 1.34077 4.9610e-02
1556.30 1.33967 4.7980e-02
1548.58 1.33840 4.6560e-02
1540.87 1.33712 4.5520e-02
1533.16 1.33592 4.4780e-02
1525.44 1.33491 4.4240e-02
1517.73 1.33405 4.3820e-02
1510.02 1.33332 4.3440e-02
1502.30 1.33273 4.3050e-02
1494.59 1.33213 4.2610e-02
1486.87 1.33155 4.2160e-02
1479.16 1.33090 4.1720e-02
1471.45 1.33024 4.1330e-02
1463.73 1.32959 4.1000e-02
1456.02 1.32894 4.0710e-02
1448.30 1.32832 4.0450e-02
1440.59 1.32773 4.0200e-02
1432.88 1.32715 3.9960e-02
1425.16 1.32658 3.9720e-02
1417.45 1.32602 3.9470e-02
1409.73 1.32550 3.9180e-02
1402.02 1.32493 3.8840e-02
1394.31 1.32432 3.8440e-02
1386.59 1.32360 3.8000e-02
1378.88 1.32274 3.7590e-02
1371.16 1.32176 3.7280e-02
1363.45 1.32074 3.7120e-02
1355.74 1.31974 3.7110e-02
1348.02 1.31886 3.7200e-02
1340.31 1.31811 3.7290e-02
1332.59 1.31744 3.7310e-02
1324.88 1.31678 3.7220e-02
1317.17 1.31609 3.7040e-02
1309.45 1.31531 3.6810e-02
1301.74 1.31443 3.6580e-02
1294.02 1.31349 3.6360e-02
1286.31 1.31248 3.6180e-02
1278.60 1.31144 3.6030e-02
1270.88 1.31037 3.5910e-02
1263.17 1.30927 3.5810e-02
1255.45 1.30816 3.5720e-02
1247.74 1.30703 3.5630e-02
1240.03 1.30586 3.5530e-02
1232.31 1.30465 3.5430e-02
1224.60 1.30339 3.5320e-02
1216.88 1.30208 3.5210e-02
1209.17 1.30072 3.5080e-02
1201.46 1.29926 3.4950e-02
1193.74 1.29775 3.4820e-02
1186.03 1.29611 3.4690e-02
1178.31 1.29440 3.4600e-02
1170.60 1.29258 3.4540e-02
1162.89 1.29067 3.4540e-02
1155.17 1.28870 3.4580e-02
1147.46 1.28664 3.4660e-02
1139.74 1.28451 3.4760e-02
1132.03 1.28226 3.4880e-02
1124.32 1.27989 3.5050e-02
1116.60 1.27739 3.5270e-02
1108.89 1.27474 3.5580e-02
1101.17 1.27196 3.5990e-02
